Sample        Spectrum      Background    Delta
 0             455.0013      182           272 
 1             473.9994      182           291 
 2             483.4997      182           300 
 3             478.0002      182           295 
 4             483.4998      182           300 
 5             500.9995      182           318 
 6             460.0013      182           277 
 7             510.9984      182           328 
 8             408.5031      182           225 
 9             412.9999      182           230 
 10            524.4966      182           341 
 11            438.0026      182           255 
 12            370.0021      182           187 
 13            383.4996      182           200 
 14            391.9997      182           209 
 15            462.4978      182           279 
 16            385.0023      182           202 
 17            438.9984      182           256 
 18            389.5015      182           206 
 19            478.9973      182           296 
 20            448.5009      182           265 
 21            462.9996      182           280 
 22            469.9998      182           287 
 23            411.0018      182           228 
 24            465.9983      182           283 
 25            412.5016      182           229 
 26            434.9993      182           252 
 27            427.0002      182           244 
 28            404.5007      182           221 
 29            524.4963      182           341 
 30            330.5059      182           147 
 31            425.9971      182           243 
 32            405.5006      182           222 
 33            402.0001      182           219 
 34            419.9995      182           237 
 35            345.0023      182           162 
 36            443.997       182           261 
 37            430.0004      182           247 
 38            364.002       182           181 
 39            453.4973      182           270 
 40            379.5023      182           196 
 41            452.9978      182           270 
 42            368.0026      182           185 
 43            368           182           185 
 44            380.9996      182           198 
 45            383.9999      182           201 
 46            412.4991      182           229 
 47            416.9999      182           234 
 48            388.0009      182           205 
 49            425.4989      182           242 
 50            436.4997      182           253 
 51            329.5033      182           146 
 52            331           182           148 
 53            443.9966      182           261 
 54            452.9997      182           270 
 55            304.0045      182           121 
 56            408.9968      182           226 
 57            328.5024      182           145 
 58            389.4981      182           206 
 59            353.0011      182           170 
 60            394.4987      182           211 
 61            438.9987      182           256 
 62            402.0011      182           219 
 63            385.5005      182           202 
 64            445.9981      182           263 
 65            451.9998      182           269 
 66            448.0001      182           265 
 67            398.5015      182           215 
 68            420.9993      182           238 
 69            385.5011      182           202 
 70            377.5002      182           194 
 71            501.4962      182           318 
 72            365.0042      182           182 
 73            358.5002      182           175 
 74            365.4998      182           182 
 75            351.0004      182           168 
 76            475.4962      182           292 
 77            383.0028      182           200 
 78            434.9984      182           252 
 79            474.9988      182           292 
 80            441.501       182           258 
 81            534.9972      182           352 
 82            474.5018      182           291 
 83            469.5002      182           286 
 84            449.0006      182           266 
 85            381.0021      182           198 
 86            411.999       182           229 
 87            358.0016      182           175 
 88            408.9984      182           226 
 89            401.0002      182           218 
 90            379.0007      182           196 
 91            364.0005      182           181 
 92            340.0007      182           157 
 93            391.4984      182           208 
 94            424.499       182           241 
 95            373.0016      182           190 
 96            415.9987      182           233 
 97            328.0027      182           145 
 98            444.9964      182           262 
 99            445           182           262 
 100           473.9991      182           291 
 101           365.5033      182           182 
 102           368.4999      182           185 
 103           352.5005      182           169 
 104           588.9928      182           406 
 105           351.0073      182           168 
 106           517.9949      182           335 
 107           485.501       182           302 
 108           389.5029      182           206 
 109           401.9996      182           219 
 110           388.0004      182           205 
 111           422.9989      182           240 
 112           469.9986      182           287 
 113           477.9998      182           295 
 114           382.0029      182           199 
 115           341.0013      182           158 
 116           449.4967      182           266 
 117           365.0026      182           182 
 118           392.4991      182           209 
 119           542.4954      182           359 
 120           546.9999      182           364 
 121           569.9993      182           387 
 122           552.0006      182           369 
 123           425.0039      182           242 
 124           476.9984      182           294 
 125           491.4996      182           308 
 126           534.9987      182           352 
 127           638.4969      182           455 
 128           658.4994      182           475 
 129           577.5024      182           394 
 130           643.9979      182           461 
 131           601.0013      182           418 
 132           564.0011      182           381 
 133           547.0005      182           364 
 134           493.0016      182           310 
 135           506.9996      182           324 
 136           536.9991      182           354 
 137           894.489       182           711 
 138           1017.996      182           835 
 139           1018          182           835 
 140           929.5027      182           746 
 141           2135.463      182           1952 
 142           24423.82      182           24241 
 143           58417.97      182           58235 
 144           61996.89      182           61814 
 145           60127.55      182           59944 
 146           32564.84      182           32382 
 147           3207.396      182           3024 
 148           1419.054      182           1236 
 149           2311.973      182           2129 
 150           2648.49       182           2465 
 151           2482.505      182           2299 
 152           2027.014      182           1844 
 153           1912.504      182           1729 
 154           3955.438      182           3772 
 155           4389.487      182           4206 
 156           4264.004      182           4081 
 157           3059.537      182           2876 
 158           1123.059      182           940 
 159           816.0095      182           633 
 160           857.4988      182           674 
 161           1013.995      182           831 
 162           1265.492      182           1082 
 163           1442.495      182           1259 
 164           1489.498      182           1306 
 165           1588.497      182           1405 
 166           1410.005      182           1227 
 167           1432.999      182           1250 
 168           1523.997      182           1341 
 169           1411.504      182           1228 
 170           1460.499      182           1277 
 171           1163.509      182           980 
 172           841.0098      182           658 
 173           1029.494      182           846 
 174           1138.497      182           955 
 175           1253.996      182           1071 
 176           1247          182           1064 
 177           1004.507      182           821 
 178           1056.498      182           873 
 179           1131.998      182           949 
 180           1020.503      182           837 
 181           1079.498      182           896 
 182           1569.985      182           1387 
 183           2406.474      182           2223 
 184           2479.998      182           2297 
 185           2678.993      182           2496 
 186           2213.014      182           2030 
 187           1782.513      182           1599 
 188           6910.843      182           6728 
 189           38384.04      182           38201 
 190           50302.14      182           50119 
 191           50754.98      182           50572 
 192           43875.21      182           43692 
 193           10955.5       182           10772 
 194           2113.27       182           1930 
 195           1255.526      182           1072 
 196           1308.498      182           1125 
 197           1202.003      182           1019 
 198           1244.999      182           1062 
 199           1220.001      182           1037 
 200           1257.999      182           1075 
 201           1240          182           1057 
 202           1304.998      182           1122 
 203           1590.991      182           1408 
 204           1693.997      182           1511 
 205           1676          182           1493 
 206           1707.499      182           1524 
 207           2811.467      182           2628 
 208           6756.38       182           6573 
 209           7817.968      182           7635 
 210           7724.002      182           7541 
 211           5986.052      182           5803 
 212           1759.129      182           1576 
 213           1255.016      182           1072 
 214           1172.003      182           989 
 215           1180.5        182           997 
 216           1127.002      182           944 
 217           1148          182           965 
 218           1156.5        182           973 
 219           1227.998      182           1045 
 220           1175.001      182           992 
 221           1254.498      182           1071 
 222           1347.997      182           1165 
 223           3613.931      182           3431 
 224           13396.7       182           13214 
 225           15638.93      182           15456 
 226           15877.49      182           15694 
 227           12509.1       182           12326 
 228           2957          182           2774 
 229           1462.5        182           1279 
 230           6737.5        182           6554 
 231           42435.5       182           42252 
 232           56328         182           56145 
 233           57216         182           57033 
 234           49865         182           49682 
 235           12686         182           12503 
 236           3162          182           2979 
 237           2140          182           1957 
 238           1438.5        182           1255 
 239           1421.5        182           1238 
 240           1465          182           1282 
 241           1282          182           1099 
 242           1455          182           1272 
 243           1382.5        182           1199 
 244           1430          182           1247 
 245           1379          182           1196 
 246           1555.5        182           1372 
 247           1390          182           1207 
 248           1458          182           1275 
 249           1506.5        182           1323 
 250           1476          182           1293 
 251           1495.5        182           1312 
 252           1537          182           1354 
 253           1506.5        182           1323 
 254           1505          182           1322 
 255           1605.5        182           1422 
 256           1605          182           1422 
 257           1658.5        182           1475 
 258           1571          182           1388 
 259           1665.5        182           1482 
 260           1703          182           1520 
 261           1746.5        182           1563 
 262           1672.5        182           1489 
 263           1780          182           1597 
 264           1810          182           1627 
 265           1821          182           1638 
 266           1760          182           1577 
 267           1884          182           1701 
 268           1898.5        182           1715 
 269           1978.5        182           1795 
 270           2084.5        182           1901 
 271           2118          182           1935 
 272           2056          182           1873 
 273           2122.5        182           1939 
 274           2153          182           1970 
 275           2176          182           1993 
 276           2214.5        182           2031 
 277           2403.5        182           2220 
 278           2255.5        182           2072 
 279           2347          182           2164 
 280           2497.5        182           2314 
 281           2392.5        182           2209 
 282           2442          182           2259 
 283           2442          182           2259 
 284           2629.5        182           2446 
 285           2978          182           2795 
 286           3143          182           2960 
 287           3250          182           3067 
 288           3136          182           2953 
 289           3048          182           2865 
 290           3192          182           3009 
 291           3194.5        182           3011 
 292           3309.5        182           3126 
 293           3296          182           3113 
 294           6724          182           6541 
 295           110709        182           110526 
 296           696706.5      182           696523 
 297           853172        182           852989 
 298           853299        182           853116 
 299           688358        182           688175 
 300           113491.5      182           113308 
 301           8963.5        182           8780 
 302           4569.5        182           4386 
 303           4322.5        182           4139 
 304           4081          182           3898 
 305           3908          182           3725 
 306           3681          182           3498 
 307           3585.5        182           3402 
 308           3586.5        182           3403 
 309           3723.5        182           3540 
 310           3403.5        182           3220 
 311           3675.5        182           3492 
 312           3453.5        182           3270 
 313           3545          182           3362 
 314           3469.5        182           3286 
 315           3509          182           3326 
 316           3585          182           3402 
 317           3603          182           3420 
 318           3556          182           3373 
 319           3526          182           3343 
 320           3522          182           3339 
 321           3565.5        182           3382 
 322           3664          182           3481 
 323           3575.5        182           3392 
 324           3771          182           3588 
 325           3649          182           3466 
 326           3820          182           3637 
 327           3652.5        182           3469 
 328           3836          182           3653 
 329           3919          182           3736 
 330           4036          182           3853 
 331           3952          182           3769 
 332           3859          182           3676 
 333           3964.5        182           3781 
 334           4149.5        182           3966 
 335           4267.5        182           4084 
 336           4490          182           4307 
 337           4556          182           4373 
 338           4599          182           4416 
 339           4507          182           4324 
 340           4336.5        182           4153 
 341           4470          182           4287 
 342           4504.5        182           4321 
 343           4466          182           4283 
 344           4535          182           4352 
 345           4543          182           4360 
 346           4646.5        182           4463 
 347           4570          182           4387 
 348           4749          182           4566 
 349           4741          182           4558 
 350           4881          182           4698 
 351           4904          182           4721 
 352           5057          182           4874 
 353           5416.5        182           5233 
 354           8236.5        182           8053 
 355           90355         182           90172 
 356           258919        182           258736 
 357           270465.5      182           270282 
 358           265381.5      182           265198 
 359           154112        182           153929 
 360           15791         182           15608 
 361           6415          182           6232 
 362           6023          182           5840 
 363           5940          182           5757 
 364           6045          182           5862 
 365           5692          182           5509 
 366           5875          182           5692 
 367           6041          182           5858 
 368           5877.5        182           5694 
 369           5965          182           5782 
 370           6275          182           6092 
 371           6419.5        182           6236 
 372           6470          182           6287 
 373           6576          182           6393 
 374           6462          182           6279 
 375           6676.5        182           6493 
 376           10636.5       182           10453 
 377           29283         182           29100 
 378           32188         182           32005 
 379           31868         182           31685 
 380           25613.5       182           25430 
 381           8951          182           8768 
 382           7709.5        182           7526 
 383           17398.5       182           17215 
 384           158743        182           158560 
 385           237773        182           237590 
 386           240386        182           240203 
 387           223128        182           222945 
 388           64813         182           64630 
 389           10314         182           10131 
 390           9602          182           9419 
 391           10223         182           10040 
 392           10147         182           9964 
 393           10087         182           9904 
 394           8909          182           8726 
 395           8424          182           8241 
 396           8649          182           8466 
 397           8535          182           8352 
 398           8771.5        182           8588 
 399           12965         182           12782 
 400           36033         182           35850 
 401           44783         182           44600 
 402           44733.5       182           44550 
 403           38493.5       182           38310 
 404           15308         182           15125 
 405           9983          182           9800 
 406           10114         182           9931 
 407           16968.5       182           16785 
 408           35358.5       182           35175 
 409           36505         182           36322 
 410           36352         182           36169 
 411           26870         182           26687 
 412           11454.5       182           11271 
 413           10587         182           10404 
 414           10667         182           10484 
 415           11589         182           11406 
 416           23238         182           23055 
 417           55880         182           55697 
 418           69094         182           68911 
 419           68670         182           68487 
 420           52762.5       182           52579 
 421           21127         182           20944 
 422           13040         182           12857 
 423           15199         182           15016 
 424           16082.5       182           15899 
 425           22152.5       182           21969 
 426           105871        182           105688 
 427           142960        182           142777 
 428           142626        182           142443 
 429           132574.5      182           132391 
 430           38164.5       182           37981 
 431           13437         182           13254 
 432           23329         182           23146 
 433           55004         182           54821 
 434           57340         182           57157 
 435           57232         182           57049 
 436           41386         182           41203 
 437           14676         182           14493 
 438           12769         182           12586 
 439           12906.5       182           12723 
 440           12848         182           12665 
 441           12816.5       182           12633 
 442           13163.5       182           12980 
 443           13107.5       182           12924 
 444           12995.5       182           12812 
 445           13035         182           12852 
 446           13117         182           12934 
 447           13371.5       182           13188 
 448           14977.5       182           14794 
 449           39398.5       182           39215 
 450           51431         182           51248 
 451           51486         182           51303 
 452           49736.5       182           49553 
 453           32604         182           32421 
 454           60955         182           60772 
 455           68993.5       182           68810 
 456           67763         182           67580 
 457           51646.5       182           51463 
 458           18196         182           18013 
 459           14444         182           14261 
 460           30492.5       182           30309 
 461           106288        182           106105 
 462           163818.5      182           163635 
 463           165876        182           165693 
 464           143981        182           143798 
 465           58963         182           58780 
 466           15916.5       182           15733 
 467           13656.5       182           13473 
 468           13316.5       182           13133 
 469           13669.5       182           13486 
 470           13687         182           13504 
 471           14688.5       182           14505 
 472           31437         182           31254 
 473           47933         182           47750 
 474           48435.5       182           48252 
 475           47683         182           47500 
 476           25687         182           25504 
 477           14322         182           14139 
 478           14178.5       182           13995 
 479           13596         182           13413 
 480           13784         182           13601 
 481           14088.5       182           13905 
 482           18195         182           18012 
 483           48166         182           47983 
 484           96070         182           95887 
 485           114730.5      182           114547 
 486           106835        182           106652 
 487           76198         182           76015 
 488           23836.5       182           23653 
 489           14228.5       182           14045 
 490           14664.5       182           14481 
 491           26318         182           26135 
 492           33535.5       182           33352 
 493           33857         182           33674 
 494           32327         182           32144 
 495           17847         182           17664 
 496           14016         182           13833 
 497           13759         182           13576 
 498           13583         182           13400 
 499           13821.5       182           13638 
 500           13873         182           13690 
 501           14123         182           13940 
 502           16267         182           16084 
 503           17091         182           16908 
 504           16455         182           16272 
 505           15989         182           15806 
 506           13986         182           13803 
 507           13501         182           13318 
 508           13490         182           13307 
 509           14043         182           13860 
 510           13920.5       182           13737 
 511           13386         182           13203 
 512           13637         182           13454 
 513           13311         182           13128 
 514           13322         182           13139 
 515           13230         182           13047 
 516           13319         182           13136 
 517           13408         182           13225 
 518           13067         182           12884 
 519           13345         182           13162 
 520           13176.5       182           12993 
 521           12824         182           12641 
 522           12792         182           12609 
 523           12719         182           12536 
 524           12441         182           12258 
 525           12583         182           12400 
 526           12844         182           12661 
 527           12987         182           12804 
 528           12614         182           12431 
 529           12768         182           12585 
 530           12426         182           12243 
 531           12258         182           12075 
 532           12197.5       182           12014 
 533           12288         182           12105 
 534           15278.99      182           15096 
 535           45475.98      182           45293 
 536           68181.98      182           67999 
 537           69897.48      182           69714 
 538           66026.99      182           65844 
 539           28190.99      182           28008 
 540           13532.5       182           13349 
 541           12378         182           12195 
 542           14627.5       182           14444 
 543           21146         182           20963 
 544           22548.98      182           22366 
 545           22495.48      182           22312 
 546           18424         182           18241 
 547           12487         182           12304 
 548           11703.51      182           11520 
 549           11265         182           11082 
 550           11111         182           10928 
 551           10836         182           10653 
 552           10844         182           10661 
 553           11201.5       182           11018 
 554           11245.99      182           11063 
 555           11158.5       182           10975 
 556           10635.99      182           10453 
 557           10469         182           10286 
 558           10310         182           10127 
 559           10000.5       182           9817 
 560           9708.506      182           9525 
 561           9582.007      182           9399 
 562           9610.5        182           9427 
 563           9374.506      182           9191 
 564           9270.996      182           9088 
 565           9225.998      182           9043 
 566           9230.995      182           9048 
 567           9298.01       182           9115 
 568           9071.994      182           8889 
 569           9046.002      182           8863 
 570           9002.001      182           8819 
 571           8773.502      182           8590 
 572           8578.996      182           8396 
 573           8629          182           8446 
 574           12202.5       182           12019 
 575           16198         182           16015 
 576           17133         182           16950 
 577           16359.51      182           16176 
 578           12054         182           11871 
 579           8760.994      182           8578 
 580           8115.996      182           7933 
 581           7788.001      182           7605 
 582           7779.997      182           7597 
 583           7496.004      182           7313 
 584           8064.004      182           7881 
 585           8025.006      182           7842 
 586           7829.002      182           7646 
 587           7303.003      182           7120 
 588           6461.507      182           6278 
 589           6277.502      182           6094 
 590           6363.498      182           6180 
 591           6071.997      182           5889 
 592           6272.501      182           6089 
 593           6406.998      182           6224 
 594           6232.998      182           6050 
 595           6203.998      182           6021 
 596           5675.002      182           5492 
 597           5292.506      182           5109 
 598           5146.502      182           4963 
 599           4923.994      182           4741 
 600           4760.996      182           4578 
 601           4734          182           4551 
 602           4590.498      182           4407 
 603           4417.996      182           4235 
 604           4395.502      182           4212 
 605           4075.497      182           3892 
 606           4140.496      182           3957 
 607           3985.507      182           3802 
 608           3591.995      182           3409 
 609           3647.998      182           3465 
 610           3399          182           3216 
 611           3346          182           3163 
 612           3231.999      182           3049 
 613           3109.002      182           2926 
 614           3558.501      182           3375 
 615           3664.501      182           3481 
 616           3556.5        182           3373 
 617           3139.998      182           2957 
 618           2717.497      182           2534 
 619           2345.499      182           2162 
 620           2225.999      182           2043 
 621           2012.004      182           1829 
 622           1966          182           1783 
 623           1788.999      182           1606 
 624           1865.999      182           1683 
 625           1681.999      182           1499 
 626           1663.999      182           1481 
 627           1582.499      182           1399 
 628           1399.001      182           1216 
 629           1506.497      182           1323 
 630           1438.998      182           1256 
 631           1259.002      182           1076 
 632           1272.995      182           1090 
 633           1315.501      182           1132 
 634           1315.999      182           1133 
 635           1166.002      182           983 
 636           1296.999      182           1114 
 637           1227.498      182           1044 
 638           1154.003      182           971 
 639           1075.002      182           892 
 640           1078.504      182           895 
 641           1028.496      182           845 
 642           1067.997      182           885 
 643           999.0016      182           816 
 644           933.998       182           751 
 645           1093.994      182           911 
 646           1056          182           873 
 647           934.5015      182           751 
 648           974.9954      182           792 
 649           1006.001      182           823 
 650           1031.999      182           849 
 651           986.9991      182           804 
 652           1016.5        182           833 
 653           925.4995      182           742 
 654           1028.501      182           845 
 655           1016.003      182           833 
 656           1082.999      182           900 
 657           1128.999      182           946 
 658           1314.998      182           1132 
 659           1858.998      182           1676 
 660           4443.003      182           4260 
 661           6947.498      182           6764 
 662           7929          182           7746 
 663           7190.998      182           7008 
 664           4450.5        182           4267 
 665           2420.001      182           2237 
 666           1648.5        182           1465 
 667           1417          182           1234 
 668           1236.001      182           1053 
 669           1101.002      182           918 
 670           1022.499      182           839 
 671           942.4958      182           759 
 672           881.9987      182           699 
 673           724.5011      182           541 
 674           799.9983      182           617 
 675           705.5031      182           522 
 676           798.0001      182           615 
 677           640.0004      182           457 
 678           558.9966      182           376 
 679           603.9974      182           421 
 680           597.001       182           414 
 681           628.0011      182           445 
 682           498.9994      182           316 
 683           524.9962      182           342 
 684           509.4988      182           326 
 685           508.0005      182           325 
 686           560.9968      182           378 
 687           594.9983      182           412 
 688           462.9974      182           280 
 689           503.4985      182           320 
 690           450.4998      182           267 
 691           520.9982      182           338 
 692           507.0032      182           324 
 693           583.9957      182           401 
 694           458.9995      182           276 
 695           443.0002      182           260 
 696           481.5012      182           298 
 697           419.9984      182           237 
 698           419.0002      182           236 
 699           392.5         182           209 
 700           430.9995      182           248 
 701           414.9996      182           232 
 702           452.9988      182           270 
 703           770.5023      182           587 
 704           1451.998      182           1269 
 705           1876.5        182           1693 
 706           2064.002      182           1881 
 707           1546.005      182           1363 
 708           969.9996      182           787 
 709           558.0011      182           375 
 710           290.4982      182           107 
 711           323.0002      182           140 
 712           502.501       182           319 
 713           392.498       182           209 
 714           372.4982      182           189 
 715           401.499       182           218 
 716           338.9984      182           156 
 717           382.9979      182           200 
 718           493.0013      182           310 
 719           3463.995      182           3281 
 720           16728.99      182           16546 
 721           28438         182           28255 
 722           33053.5       182           32870 
 723           29967         182           29784 
 724           15298.51      182           15115 
 725           4348.997      182           4166 
 726           1138.995      182           956 
 727           426.9998      182           244 
 728           411.4984      182           228 
 729           373.0009      182           190 
 730           296.0001      182           113 
 731           277           182           94 
 732           294.9968      182           112 
 733           352.4983      182           169 
 734           307.0021      182           124 
 735           355.0024      182           172 
 736           311.5018      182           128 
 737           358.4988      182           175 
 738           302.9982      182           120 
 739           176.9966      182          -6 
 740           38.99774      182          -144 
